  INPUT PROFILE
  219.100 249.820 255.990 257.540 251.720 243.480 235.020 229.330 226.620 223.050
  218.620 215.080 212.130 207.950 202.510 194.340 193.150 198.050 205.490 212.480
  219.840 226.740 233.390 240.020 246.660 253.050 258.760 263.400 267.210 271.020
  275.130 278.310 281.060 283.330 285.480 287.820 290.440 292.760 294.820 296.760
  299.190 300.970 301.640
   -5.810  -5.810  -5.810  -5.810  -5.810  -5.810  -5.810  -5.810  -5.810  -5.810
   -5.810  -5.810  -5.810  -5.810  -5.810  -5.810  -5.810  -5.810  -5.810  -5.810
   -5.810  -5.810  -4.070  -1.410  -0.980  -0.960  -1.140  -0.150   0.820   1.070
    0.980   1.640   1.940   2.080   2.280   2.410   2.470   2.540   2.640   2.810
    2.870   2.900   2.910
    1.000   1.257   1.780   2.886   3.287   3.244   3.158   2.985   2.816   2.053
    1.485   1.340   1.273   1.044   0.899   0.740   0.555   0.360   0.267   0.160
    0.082   0.049   0.045   0.045   0.045   0.045   0.045   0.041   0.038   0.036
    0.035   0.034   0.033   0.032   0.031   0.029   0.027   0.026   0.025   0.026
    0.029   0.032   0.032
   -0.100   0.000   0.000   0.000   0.000   0.000   0.000   0.000   0.000   0.000
    0.000   0.000   0.000   0.000   0.000   0.000   0.000   0.000   0.000   0.000
    0.000   0.000   0.000   0.000   0.000   0.000   0.000   0.000   0.000   0.000
    0.000   0.000   0.000   0.000   0.000   0.000   0.000   0.000   0.000   0.000
    0.000   0.000   0.000
  301.640   2.9101007.300   5.000   2.000
  301.640   3.000   5.000  15.000   0.100   0.300
  500.000   0.000
  
  NUMBER OF PROFILES PROCESSED= 1
  
 CHANNELS PROCESSED:
        1       2       3       4       5       6       7       8       9      10
       11      12      13      14      15      16      17      18
  
 INPUT SURFACE EMISSIVITIES SAT = 8
    0.000   0.000   0.000   0.000   0.000   0.000   0.000   0.000   0.000   0.000
    0.000   0.000   0.000   0.000   0.000   0.000   0.000   0.000
  
  -----------------
  Profile number  1 Instrument  23
  -----------------
  
 CALCULATED BRIGHTNESS TEMPERATURES: SAT = 8 ZENITH ANGLE=  0.00 AZIMUTH ANGLE=   0.00 SURFACE TYPE= 1
   217.53  218.27  242.96  262.00  270.52  287.71  291.77  294.21  276.93  264.19
   256.43  241.52  287.34  273.69  252.33  293.48  299.17  298.35
  
 CALCULATED RADIANCES: SAT = 8
    42.18   41.45   64.56   85.43   95.24  115.34  115.87  106.71   62.26   19.49
    11.76    4.62    2.22    1.18    0.38    1.19    1.09    0.60
  
 CALCULATED OVERCAST RADIANCES: SAT = 8
    42.18   41.44   62.27   75.93   80.82   86.32   81.49   70.11   40.30   17.13
    11.46    4.62    0.89    0.60    0.28    0.37    0.28    0.15
  
 CALCULATED SURFACE TO SPACE TRANSMITTANCE: SAT = 8
   0.0000  0.0000  0.0007  0.0121  0.0278  0.1397  0.2564  0.3865  0.3336  0.0003
   0.0000  0.0000  0.3352  0.1123  0.0075  0.5617  0.8582  0.7563
  
 CALCULATED SURFACE EMISSIVITIES SAT = 8
    0.959   0.961   0.964   0.969   0.972   0.981   0.988   0.992   0.988   0.982
    0.981   0.978   0.979   0.979   0.979   0.978   0.977   0.975
  
 Level to space transmittances for channels
          1       2       3       4       5       6       7       8       9      10
  1  0.9950  0.9972  0.9989  0.9994  0.9998  1.0000  1.0000  1.0000  0.9994  1.0000
  2  0.9915  0.9948  0.9975  0.9988  0.9993  1.0000  1.0000  1.0000  0.9982  0.9999
  3  0.9845  0.9903  0.9955  0.9980  0.9985  0.9999  1.0000  1.0000  0.9953  0.9998
  4  0.9725  0.9828  0.9928  0.9968  0.9973  0.9999  1.0000  1.0000  0.9885  0.9995
  5  0.9536  0.9716  0.9887  0.9949  0.9958  0.9997  1.0000  1.0000  0.9778  0.9990
  6  0.9259  0.9557  0.9830  0.9921  0.9938  0.9995  0.9999  1.0000  0.9655  0.9982
  7  0.8876  0.9347  0.9756  0.9884  0.9913  0.9993  0.9999  1.0000  0.9512  0.9970
  8  0.8376  0.9080  0.9663  0.9838  0.9883  0.9990  0.9999  1.0000  0.9334  0.9955
  9  0.7753  0.8746  0.9547  0.9780  0.9847  0.9988  0.9998  1.0000  0.9114  0.9938
 10  0.7013  0.8342  0.9408  0.9712  0.9804  0.9984  0.9998  0.9999  0.8877  0.9917
 11  0.6179  0.7877  0.9254  0.9638  0.9757  0.9981  0.9998  0.9999  0.8662  0.9891
 12  0.5280  0.7353  0.9084  0.9556  0.9708  0.9978  0.9997  0.9998  0.8450  0.9859
 13  0.4352  0.6771  0.8893  0.9463  0.9653  0.9975  0.9997  0.9998  0.8203  0.9817
 14  0.3435  0.6145  0.8684  0.9361  0.9594  0.9972  0.9996  0.9997  0.7938  0.9766
 15  0.2567  0.5497  0.8467  0.9254  0.9535  0.9969  0.9995  0.9996  0.7696  0.9704
 16  0.1784  0.4851  0.8250  0.9143  0.9478  0.9967  0.9994  0.9994  0.7442  0.9631
 17  0.1146  0.4230  0.8034  0.9032  0.9423  0.9964  0.9993  0.9993  0.7225  0.9551
 18  0.0651  0.3572  0.7768  0.8895  0.9355  0.9962  0.9992  0.9991  0.7043  0.9457
 19  0.0340  0.2925  0.7439  0.8730  0.9264  0.9959  0.9990  0.9989  0.6901  0.9357
 20  0.0165  0.2304  0.7031  0.8527  0.9144  0.9955  0.9989  0.9986  0.6790  0.9247
 21  0.0079  0.1741  0.6547  0.8285  0.8991  0.9949  0.9986  0.9983  0.6719  0.9129
 22  0.0040  0.1258  0.5996  0.8003  0.8802  0.9941  0.9984  0.9980  0.6675  0.9004
 23  0.0023  0.0866  0.5392  0.7682  0.8578  0.9931  0.9981  0.9977  0.6641  0.8839
 24  0.0015  0.0561  0.4742  0.7313  0.8309  0.9906  0.9975  0.9972  0.6603  0.8343
 25  0.0010  0.0342  0.4072  0.6893  0.7988  0.9858  0.9964  0.9965  0.6562  0.7666
 26  0.0007  0.0198  0.3423  0.6438  0.7636  0.9800  0.9949  0.9956  0.6518  0.7054
 27  0.0005  0.0108  0.2819  0.5964  0.7266  0.9739  0.9932  0.9946  0.6471  0.6548
 28  0.0003  0.0055  0.2273  0.5463  0.6864  0.9649  0.9905  0.9931  0.6421  0.5881
 29  0.0002  0.0026  0.1783  0.4901  0.6381  0.9453  0.9830  0.9889  0.6361  0.4721
 30  0.0001  0.0011  0.1369  0.4309  0.5844  0.9164  0.9690  0.9809  0.6286  0.3531
 31  0.0001  0.0005  0.1040  0.3764  0.5327  0.8884  0.9540  0.9719  0.6206  0.2664
 32  0.0000  0.0002  0.0770  0.3210  0.4752  0.8488  0.9302  0.9569  0.6100  0.1843
 33  0.0000  0.0001  0.0543  0.2611  0.4048  0.7837  0.8852  0.9265  0.5934  0.1087
 34  0.0000  0.0000  0.0368  0.2047  0.3325  0.7046  0.8254  0.8841  0.5722  0.0595
 35  0.0000  0.0000  0.0238  0.1541  0.2625  0.6144  0.7518  0.8293  0.5463  0.0305
 36  0.0000  0.0000  0.0146  0.1106  0.1975  0.5160  0.6651  0.7615  0.5152  0.0146
 37  0.0000  0.0000  0.0086  0.0771  0.1443  0.4233  0.5777  0.6897  0.4822  0.0069
 38  0.0000  0.0000  0.0051  0.0531  0.1044  0.3439  0.4975  0.6206  0.4500  0.0033
 39  0.0000  0.0000  0.0030  0.0362  0.0745  0.2756  0.4238  0.5538  0.4181  0.0016
 40  0.0000  0.0000  0.0017  0.0241  0.0518  0.2154  0.3536  0.4867  0.3854  0.0008
 41  0.0000  0.0000  0.0010  0.0164  0.0366  0.1694  0.2958  0.4283  0.3558  0.0004
 42  0.0000  0.0000  0.0007  0.0124  0.0285  0.1422  0.2597  0.3901  0.3355  0.0003
 43  0.0000  0.0000  0.0006  0.0111  0.0257  0.1323  0.2462  0.3754  0.3275  0.0003
          1       2       3       4       5       6       7       8       9      10
  
 Level to space transmittances for channels
         11      12      13      14      15      16      17      18
  1  0.9999  0.9996  0.9997  0.9999  0.9989  0.9999  1.0000  1.0000
  2  0.9997  0.9990  0.9996  0.9999  0.9976  0.9999  1.0000  1.0000
  3  0.9994  0.9982  0.9995  0.9998  0.9955  0.9998  1.0000  1.0000
  4  0.9990  0.9972  0.9994  0.9997  0.9927  0.9997  1.0000  1.0000
  5  0.9986  0.9963  0.9992  0.9992  0.9893  0.9995  1.0000  1.0000
  6  0.9981  0.9950  0.9989  0.9980  0.9847  0.9993  1.0000  1.0000
  7  0.9975  0.9934  0.9983  0.9960  0.9784  0.9990  1.0000  1.0000
  8  0.9968  0.9912  0.9975  0.9933  0.9704  0.9986  0.9999  0.9999
  9  0.9959  0.9883  0.9963  0.9899  0.9605  0.9981  0.9999  0.9999
 10  0.9949  0.9845  0.9949  0.9856  0.9482  0.9974  0.9998  0.9998
 11  0.9935  0.9797  0.9932  0.9803  0.9334  0.9967  0.9997  0.9998
 12  0.9918  0.9738  0.9912  0.9735  0.9158  0.9959  0.9996  0.9997
 13  0.9899  0.9667  0.9886  0.9648  0.8947  0.9949  0.9994  0.9996
 14  0.9876  0.9583  0.9854  0.9534  0.8698  0.9936  0.9991  0.9994
 15  0.9849  0.9485  0.9814  0.9388  0.8408  0.9919  0.9988  0.9993
 16  0.9819  0.9371  0.9766  0.9208  0.8081  0.9895  0.9983  0.9990
 17  0.9787  0.9242  0.9711  0.9001  0.7728  0.9865  0.9978  0.9988
 18  0.9749  0.9086  0.9640  0.8754  0.7311  0.9823  0.9970  0.9985
 19  0.9705  0.8915  0.9554  0.8488  0.6851  0.9772  0.9961  0.9982
 20  0.9656  0.8727  0.9447  0.8197  0.6345  0.9710  0.9949  0.9978
 21  0.9601  0.8522  0.9319  0.7881  0.5799  0.9636  0.9934  0.9974
 22  0.9538  0.8301  0.9170  0.7545  0.5229  0.9549  0.9917  0.9969
 23  0.9351  0.7712  0.8999  0.7187  0.4646  0.9449  0.9896  0.9964
 24  0.8211  0.5008  0.8807  0.6810  0.4065  0.9334  0.9872  0.9955
 25  0.6749  0.2565  0.8593  0.6419  0.3502  0.9204  0.9843  0.9940
 26  0.5547  0.1291  0.8359  0.6019  0.2970  0.9058  0.9809  0.9921
 27  0.4675  0.0699  0.8111  0.5617  0.2482  0.8899  0.9771  0.9903
 28  0.3557  0.0249  0.7846  0.5213  0.2046  0.8724  0.9728  0.9876
 29  0.1894  0.0022  0.7553  0.4803  0.1663  0.8534  0.9678  0.9817
 30  0.0792  0.0002  0.7236  0.4392  0.1334  0.8330  0.9622  0.9728
 31  0.0338  0.0000  0.6914  0.3996  0.1057  0.8113  0.9561  0.9634
 32  0.0110  0.0000  0.6572  0.3607  0.0827  0.7883  0.9492  0.9510
 33  0.0022  0.0000  0.6195  0.3222  0.0639  0.7641  0.9415  0.9330
 34  0.0004  0.0000  0.5811  0.2858  0.0490  0.7388  0.9330  0.9129
 35  0.0001  0.0000  0.5425  0.2520  0.0374  0.7128  0.9237  0.8914
 36  0.0000  0.0000  0.5041  0.2211  0.0285  0.6864  0.9137  0.8687
 37  0.0000  0.0000  0.4674  0.1937  0.0217  0.6604  0.9033  0.8462
 38  0.0000  0.0000  0.4336  0.1702  0.0167  0.6354  0.8929  0.8250
 39  0.0000  0.0000  0.4029  0.1503  0.0131  0.6121  0.8827  0.8051
 40  0.0000  0.0000  0.3752  0.1339  0.0105  0.5914  0.8731  0.7859
 41  0.0000  0.0000  0.3522  0.1213  0.0087  0.5744  0.8647  0.7691
 42  0.0000  0.0000  0.3366  0.1131  0.0076  0.5628  0.8588  0.7574
 43  0.0000  0.0000  0.3305  0.1100  0.0072  0.5582  0.8564  0.7528
         11      12      13      14      15      16      17      18
